File: 20131015-Master_Thesis/img/results/ig2-4-xrd-spin700.txt
3	49
3.15	43
3.3	45
3.45	41
3.6	36
3.75	35
3.9	31
4.05	33
4.2	31
4.35	34
4.5	30
4.65	26
4.8	26
4.95	30
5.1	25
5.25	26
5.4	26
5.55	31
5.7	35
5.85	28
6	28
6.15	28
6.3	23
6.45	21
6.6	25
6.75	20
6.9	21
7.05	21
7.2	19
7.35	19
7.5	25
7.65	20
7.8	22
7.95	20
8.1	19
8.25	21
8.4	24
8.55	22
8.7	23
8.85	26
9	26
9.15	25
9.3	25
9.45	32
9.6	26
9.75	29
9.9	34
10.05	33
10.2	33
10.35	33
10.5	35
10.65	37
10.8	37
10.95	38
11.1	41
11.25	38
11.4	40
11.55	40
11.7	40
11.85	41
12	43
12.15	50
12.3	44
12.45	45
12.6	52
12.75	48
12.9	49
13.05	53
13.2	58
13.35	60
13.5	59
13.65	58
13.8	64
13.95	64
14.1	67
14.25	66
14.4	69
14.55	66
14.7	66
14.85	69
15	74
15.15	74
15.3	70
15.45	76
15.6	78
15.75	77
15.9	89
16.05	89
16.2	92
16.35	98
16.5	97
16.65	94
16.8	96
16.95	99
17.1	104
17.25	107
17.4	111
17.55	123
17.7	121
17.85	126
18	126
18.15	145
18.3	136
18.45	156
18.6	150
18.75	154
18.9	161
19.05	165
19.2	166
19.35	175
19.5	180
19.65	192
19.8	186
19.95	205
20.1	210
20.25	219
20.4	216
20.55	233
20.7	230
20.85	233
21	249
21.15	245
21.3	248
21.45	263
21.6	247
21.75	258
21.9	244
22.05	243
22.2	240
22.35	240
22.5	231
22.65	243
22.8	242
22.95	235
23.1	233
23.25	220
23.4	223
23.55	214
23.7	207
23.85	205
24	194
24.15	211
24.3	193
24.45	185
24.6	173
24.75	170
24.9	164
25.05	175
25.2	170
25.35	159
25.5	144
25.65	150
25.8	142
25.95	135
26.1	140
26.25	132
26.4	128
26.55	121
26.7	126
26.85	122
27	112
27.15	117
27.3	115
27.45	113
27.6	110
27.75	106
27.9	111
28.05	100
28.2	97
28.35	100
28.5	100
28.65	92
28.8	96
28.95	101
29.1	91
29.25	83
29.4	85
29.55	87
29.7	94
29.85	90
30	83
30.15	82
30.3	89
30.45	77
30.6	81
30.75	81
30.9	75
31.05	80
31.2	70
31.35	78
31.5	70
31.65	81
31.8	75
31.95	75
32.1	74
32.25	72
32.4	73
32.55	70
32.7	72
32.85	66
33	70