File: 20131015-Master_Thesis/img/results/ig2-8-xrd-cast-ch2cl2-Perp_32_00001IP.txt
0.021947	0
0.153629	59.001
0.285311	57.7921
0.416993	67.4934
0.548675	20322.5
0.680357	18711.9
0.812039	7182
0.943721	1842.73
1.0754	1572.45
1.20708	1772.62
1.33877	2176.02
1.47045	2634.72
1.60213	2932.74
1.73381	2998.79
1.86549	3310.06
1.99718	3563.89
2.12886	4005.65
2.26054	4165.79
2.39222	4244.53
2.5239	4249.94
2.65559	4371.47
2.78727	4836.58
2.91895	4890.9
3.05063	5093.1
3.18231	5259.95
3.314	5041.21
3.44568	5040.64
3.57736	5147.74
3.70904	5182.07
3.84072	5186.71
3.97241	5210.61
4.10409	5309.28
4.23577	5623.14
4.36745	5851.78
4.49913	6219.07
4.63082	7081.47
4.7625	9972.17
4.89418	17181.2
5.02586	23071.2
5.15754	21714.8
5.28923	14682.2
5.42091	9495.57
5.55259	7403.15
5.68427	6492.7
5.81595	5984.56
5.94764	5699.94
6.07932	5519.58
6.211	5433.46
6.34268	5337.07
6.47436	5206.44
6.60604	5123.13
6.73773	5090.39
6.86941	5016.64
7.00109	4995.41
7.13277	4937.22
7.26445	4898.63
7.39614	4865.4
7.52782	4806.63
7.6595	4777.98
7.79118	4758.7
7.92286	4734.92
8.05455	4691.22
8.18623	4694.6
8.31791	4691.61
8.44959	4689.23
8.58127	4700.88
8.71296	4711.05
8.84464	4716.84
8.97632	4724.92
9.108	4753.48
9.23968	4828.31
9.37137	4821.68
9.50305	4860.44
9.63473	4938.28
9.76641	5056.01
9.89809	5142.42
10.0298	5223.67
10.1615	5223.51
10.2931	5149.91
10.4248	5082.72
10.5565	5005.34
10.6882	4955.64
10.8199	4967.59
10.9515	4950.66
11.0832	4974.18
11.2149	5011.68
11.3466	5048.81
11.4783	5089.14
11.61	5122.45
11.7416	5169.16
11.8733	5212.77
12.005	5323.25
12.1367	3980.29
12.2684	2547.35
12.4001	2045.51
12.5317	2931.46
12.6634	3561.23
12.7951	4543.03
12.9268	5398.15
13.0585	5566.96
13.1901	5627.17
13.3218	5665.06
13.4535	5726.5
13.5852	5821.64
13.7169	5875.51
13.8486	5954.13
13.9802	6058.21
14.1119	6132.14
14.2436	6241.54
14.3753	6339.19
14.507	6506.64
14.6386	6740
14.7703	6904.11
14.902	7073.62
15.0337	7286.84
15.1654	7509.06
15.2971	7552.99
15.4287	7568.39
15.5604	7590.88
15.6921	7637.95
15.8238	7683.78
15.9555	7732.88
16.0871	7812.1
16.2188	7861.37
16.3505	7938.87
16.4822	8019.88
16.6139	8043.75
16.7456	8073.53
16.8772	8104.86
17.0089	8139.33
17.1406	8194.7
17.2723	8233.99
17.404	8284.02
17.5356	8329.72
17.6673	8389.43
17.799	8485.1
17.9307	8553.88
18.0624	8615.83
18.1941	8664.63
18.3257	8749.57
18.4574	8802.5
18.5891	8860.25
18.7208	8920.91
18.8525	8928.86
18.9841	8958.57
19.1158	8969.9
19.2475	9026.67
19.3792	9022.8
19.5109	9048.79
19.6426	9119.76
19.7742	9165.51
19.9059	9241.72
20.0376	9251.17
20.1693	9265.39
20.301	9215.69
20.4326	9213.02
20.5643	9242.51
20.696	9262.41
20.8277	9152.73
20.9594	9087.3
21.0911	9020.82
21.2227	8951.94
21.3544	8891.99
21.4861	8867.5
21.6178	8776.81
21.7495	8637.52
21.8812	8622.31
22.0128	8530.01
22.1445	8472.35
22.2762	8395.9
22.4079	8292.94
22.5396	8181.19
22.6712	8055.31
22.8029	7973.91
22.9346	7874
23.0663	7781.32
23.198	7592.44
23.3297	7461.08
23.4613	7329.29
23.593	7199.11
23.7247	7036.85
23.8564	6978.96
23.9881	6784.38
24.1197	6643.82
24.2514	6532.3
24.3831	6408.9
24.5148	6303.98
24.6465	6155.44
24.7782	6072.2
24.9098	5946.23
25.0415	5836.97
25.1732	5746.51
25.3049	5645.8
25.4366	5549.1
25.5682	5473.32
25.6999	5396.83
25.8316	5324.38
25.9633	5246.55
26.095	5171.4
26.2267	5117.79
26.3583	5050.49
26.49	4970.86
26.6217	4900.96
26.7534	4834.7
26.8851	4785.54
27.0167	4672.94
27.1484	4635.1
27.2801	4498.53
27.4118	4429.08
27.5435	4419.61
27.6752	4276.35
27.8068	4164.14
27.9385	4089.24
28.0702	4017.02
28.2019	3953.93
28.3336	3899.45
28.4653	4075.79
28.5969	4067.62
28.7286	3685.76
28.8603	3601.64
28.992	3543.5
29.1237	3511.09
29.2553	3491.75
29.387	3458.53
29.5187	3442.85
29.6504	3418.66
29.7821	3392.47
29.9138	3383.25
30.0454	3363.07
30.1771	3342.6
30.3088	3387.7
30.4405	3352.16
30.5722	3352.37
30.7038	3319.81
30.8355	3298.21
30.9672	3281.29
31.0989	3257.73
31.2306	3251.13
31.3623	3220.78
31.4939	3199.14
31.6256	3227.9
31.7573	3462.33
31.889	3372.68
32.0207	3188.2
32.1523	3154.19