File: 20131015-Master_Thesis/img/results/ig2-8-xrd-cast-ch2cl2.txt
3	37
3.1	34
3.2	33
3.3	29
3.4	28
3.5	28
3.6	26
3.7	25
3.8	25
3.9	23
4	24
4.1	23
4.2	22
4.3	23
4.4	20
4.5	22
4.6	19
4.7	20
4.8	20
4.9	20
5	19
5.1	19
5.2	21
5.3	20
5.4	21
5.5	22
5.6	24
5.7	22
5.8	21
5.9	20
6	18
6.1	18
6.2	18
6.3	17
6.4	17
6.5	18
6.6	19
6.7	17
6.8	17
6.9	17
7	16
7.1	17
7.2	17
7.3	17
7.4	17
7.5	18
7.6	17
7.7	18
7.8	17
7.9	15
8	20
8.1	16
8.2	16
8.3	18
8.4	19
8.5	19
8.6	18
8.7	19
8.8	21
8.9	20
9	20
9.1	20
9.2	21
9.3	23
9.4	23
9.5	21
9.6	24
9.7	23
9.8	23
9.9	24
10	27
10.1	27
10.2	27
10.3	26
10.4	28
10.5	28
10.6	28
10.7	30
10.8	31
10.9	30
11	32
11.1	30
11.2	33
11.3	32
11.4	33
11.5	36
11.6	35
11.7	34
11.8	36
11.9	37
12	38
12.1	39
12.2	37
12.3	42
12.4	37
12.5	42
12.6	38
12.7	41
12.8	42
12.9	43
13	43
13.1	44
13.2	47
13.3	49
13.4	47
13.5	47
13.6	45
13.7	52
13.8	49
13.9	50
14	53
14.1	52
14.2	55
14.3	53
14.4	57
14.5	59
14.6	58
14.7	59
14.8	63
14.9	65
15	68
15.1	65
15.2	68
15.3	67
15.4	71
15.5	72
15.6	70
15.7	73
15.8	78
15.9	79
16	80
16.1	81
16.2	84
16.3	81
16.4	91
16.5	88
16.6	87
16.7	90
16.8	91
16.9	97
17	99
17.1	102
17.2	100
17.3	104
17.4	106
17.5	112
17.6	112
17.7	114
17.8	116
17.9	121
18	124
18.1	125
18.2	121
18.3	131
18.4	133
18.5	135
18.6	141
18.7	138
18.8	145
18.9	144
19	152
19.1	152
19.2	156
19.3	161
19.4	163
19.5	172
19.6	174
19.7	170
19.8	176
19.9	179
20	177
20.1	182
20.2	183
20.3	193
20.4	198
20.5	196
20.6	202
20.7	207
20.8	203
20.9	202
21	209
21.1	205
21.2	210
21.3	206
21.4	212
21.5	217
21.6	207
21.7	210
21.8	212
21.9	209
22	210
22.1	209
22.2	204
22.3	209
22.4	212
22.5	204
22.6	197
22.7	199
22.8	196
22.9	194
23	202
23.1	196
23.2	183
23.3	174
23.4	175
23.5	176
23.6	175
23.7	176
23.8	176
23.9	170
24	173
24.1	164
24.2	161
24.3	167
24.4	157
24.5	148
24.6	154
24.7	144
24.8	139
24.9	144
25	145
25.1	141
25.2	140
25.3	131
25.4	131
25.5	129
25.6	125
25.7	121
25.8	124
25.9	121
26	118