File: 20131015-Master_Thesis/img/results/ig2-8-xrd-cast-ch2cl2-anneal.txt
3	33
3.1	30
3.2	32
3.3	27
3.4	28
3.5	27
3.6	27
3.7	24
3.8	24
3.9	24
4	24
4.1	24
4.2	20
4.3	22
4.4	22
4.5	21
4.6	20
4.7	20
4.8	17
4.9	18
5	17
5.1	18
5.2	18
5.3	19
5.4	19
5.5	21
5.6	25
5.7	20
5.8	19
5.9	17
6	18
6.1	18
6.2	16
6.3	15
6.4	15
6.5	16
6.6	16
6.7	14
6.8	15
6.9	16
7	15
7.1	16
7.2	14
7.3	15
7.4	14
7.5	16
7.6	19
7.7	19
7.8	15
7.9	17
8	18
8.1	16
8.2	17
8.3	18
8.4	17
8.5	20
8.6	18
8.7	21
8.8	17
8.9	16
9	21
9.1	19
9.2	21
9.3	20
9.4	22
9.5	22
9.6	24
9.7	22
9.8	23
9.9	25
10	24
10.1	25
10.2	26
10.3	28
10.4	25
10.5	28
10.6	28
10.7	29
10.8	28
10.9	29
11	31
11.1	30
11.2	32
11.3	32
11.4	30
11.5	32
11.6	34
11.7	33
11.8	39
11.9	37
12	35
12.1	35
12.2	36
12.3	39
12.4	37
12.5	41
12.6	42
12.7	42
12.8	42
12.9	44
13	45
13.1	43
13.2	49
13.3	45
13.4	45
13.5	46
13.6	47
13.7	47
13.8	45
13.9	51
14	53
14.1	50
14.2	54
14.3	49
14.4	58
14.5	56
14.6	53
14.7	53
14.8	61
14.9	62
15	59
15.1	64
15.2	64
15.3	65
15.4	63
15.5	65
15.6	67
15.7	67
15.8	74
15.9	71
16	71
16.1	73
16.2	75
16.3	75
16.4	82
16.5	80
16.6	80
16.7	82
16.8	86
16.9	91
17	94
17.1	90
17.2	97
17.3	94
17.4	97
17.5	98
17.6	102
17.7	100
17.8	104
17.9	108
18	106
18.1	115
18.2	115
18.3	118
18.4	119
18.5	120
18.6	127
18.7	134
18.8	139
18.9	143
19	141
19.1	145
19.2	157
19.3	163
19.4	152
19.5	161
19.6	172
19.7	169
19.8	179
19.9	182
20	183
20.1	184
20.2	189
20.3	191
20.4	196
20.5	196
20.6	201
20.7	199
20.8	204
20.9	208
21	212
21.1	214
21.2	204
21.3	214
21.4	219
21.5	217
21.6	211
21.7	217
21.8	211
21.9	211
22	206
22.1	210
22.2	206
22.3	221
22.4	205
22.5	209
22.6	199
22.7	199
22.8	202
22.9	198
23	183
23.1	193
23.2	185
23.3	184
23.4	184
23.5	183
23.6	181
23.7	170
23.8	170
23.9	170
24	162
24.1	158
24.2	153
24.3	151
24.4	153
24.5	145
24.6	143
24.7	140
24.8	142
24.9	138
25	139
25.1	128
25.2	128
25.3	128
25.4	130
25.5	126
25.6	125
25.7	116
25.8	115
25.9	114
26	111
26.1	109
26.2	109
26.3	110
26.4	103
26.5	100
26.6	101
26.7	98
26.8	98
26.9	91
27	94