File: 20131015-Master_Thesis/img/results/ig2-4-xrd.txt
2	91
2.15	90
2.3	77
2.45	80
2.6	76
2.75	74
2.9	81
3.05	81
3.2	72
3.35	81
3.5	86
3.65	95
3.8	89
3.95	91
4.1	100
4.25	106
4.4	112
4.55	129
4.7	158
4.85	191
5	263
5.15	357
5.3	525
5.45	464
5.6	258
5.75	160
5.9	129
6.05	124
6.2	120
6.35	115
6.5	112
6.65	111
6.8	113
6.95	113
7.1	116
7.25	112
7.4	114
7.55	103
7.7	112
7.85	112
8	102
8.15	103
8.3	97
8.45	108
8.6	98
8.75	106
8.9	109
9.05	107
9.2	107
9.35	107
9.5	110
9.65	107
9.8	113
9.95	113
10.1	110
10.25	122
10.4	121
10.55	133
10.7	128
10.85	123
11	118
11.15	113
11.3	121
11.45	125
11.6	126
11.75	125
11.9	125
12.05	124
12.2	126
12.35	130
12.5	133
12.65	137
12.8	146
12.95	137
13.1	145
13.25	150
13.4	152
13.55	151
13.7	149
13.85	152
14	151
14.15	153
14.3	152
14.45	163
14.6	154
14.75	154
14.9	163
15.05	160
15.2	166
15.35	171
15.5	181
15.65	202
15.8	205
15.95	210
16.1	201
16.25	195
16.4	201
16.55	193
16.7	200
16.85	206
17	206
17.15	202
17.3	204
17.45	205
17.6	205
17.75	197
17.9	194
18.05	191
18.2	206
18.35	189
18.5	186
18.65	191
18.8	187
18.95	191
19.1	191
19.25	198
19.4	186
19.55	196
19.7	194
19.85	195
20	188
20.15	184
20.3	190
20.45	183
20.6	180
20.75	197
20.9	185
21.05	174
21.2	189
21.35	187
21.5	186
21.65	180
21.8	180
21.95	191
22.1	165
22.25	183
22.4	190
22.55	190
22.7	196
22.85	194
23	196
23.15	214
23.3	211
23.45	227
23.6	221
23.75	213
23.9	215
24.05	207
24.2	202
24.35	191
24.5	189
24.65	185
24.8	194
24.95	189
25.1	196
25.25	193
25.4	178
25.55	184
25.7	177
25.85	176
26	185
26.15	180
26.3	182
26.45	176
26.6	181
26.75	186
26.9	173
27.05	175
27.2	179
27.35	175
27.5	170
27.65	172
27.8	166
27.95	177
28.1	175
28.25	184
28.4	170
28.55	173
28.7	171
28.85	169
29	178
29.15	182
29.3	165
29.45	169
29.6	176
29.75	175
29.9	160
30.05	175
30.2	178
30.35	168
30.5	184
30.65	175
30.8	176
30.95	172
31.1	172
31.25	167
31.4	172
31.55	170
31.7	169
31.85	165
32	162