File: 20131015-Master_Thesis/img/results/quartz-xrd.txt
3	37
3.1	37
3.2	31
3.3	32
3.4	33
3.5	30
3.6	28
3.7	28
3.8	27
3.9	26
4	26
4.1	26
4.2	25
4.3	23
4.4	23
4.5	21
4.6	22
4.7	19
4.8	21
4.9	19
5	21
5.1	19
5.2	20
5.3	19
5.4	18
5.5	19
5.6	19
5.7	18
5.8	17
5.9	18
6	16
6.1	16
6.2	19
6.3	17
6.4	18
6.5	17
6.6	16
6.7	17
6.8	16
6.9	16
7	17
7.1	16
7.2	16
7.3	16
7.4	18
7.5	17
7.6	17
7.7	18
7.8	18
7.9	17
8	15
8.1	17
8.2	19
8.3	18
8.4	19
8.5	20
8.6	20
8.7	21
8.8	21
8.9	21
9	22
9.1	23
9.2	23
9.3	22
9.4	23
9.5	22
9.6	23
9.7	25
9.8	26
9.9	27
10	26
10.1	28
10.2	28
10.3	27
10.4	27
10.5	27
10.6	30
10.7	29
10.8	31
10.9	29
11	30
11.1	33
11.2	32
11.3	30
11.4	33
11.5	30
11.6	34
11.7	37
11.8	33
11.9	33
12	37
12.1	32
12.2	34
12.3	34
12.4	36
12.5	36
12.6	34
12.7	35
12.8	33
12.9	37
13	37
13.1	42
13.2	34
13.3	40
13.4	37
13.5	40
13.6	40
13.7	39
13.8	41
13.9	41
14	42
14.1	44
14.2	41
14.3	41
14.4	40
14.5	42
14.6	42
14.7	47
14.8	44
14.9	45
15	48
15.1	47
15.2	46
15.3	46
15.4	47
15.5	51
15.6	50
15.7	49
15.8	54
15.9	52
16	53
16.1	57
16.2	55
16.3	58
16.4	56
16.5	60
16.6	61
16.7	58
16.8	62
16.9	61
17	67
17.1	72
17.2	76
17.3	73
17.4	71
17.5	71
17.6	79
17.7	78
17.8	80
17.9	82
18	81
18.1	82
18.2	86
18.3	89
18.4	90
18.5	92
18.6	96
18.7	100
18.8	100
18.9	107
19	105
19.1	111
19.2	110
19.3	111
19.4	114
19.5	119
19.6	121
19.7	122
19.8	126
19.9	132
20	134
20.1	134
20.2	148
20.3	137
20.4	165
20.5	140
20.6	151
20.7	162
20.8	151
20.9	168
21	153
21.1	159
21.2	153
21.3	154
21.4	154
21.5	170
21.6	174
21.7	172
21.8	161
21.9	161
22	153
22.1	153
22.2	155
22.3	161
22.4	161
22.5	151
22.6	146
22.7	154
22.8	153
22.9	144
23	149
23.1	144
23.2	138
23.3	139
23.4	69
23.5	136
23.6	131
23.7	129
23.8	129
23.9	127
24	127
24.1	131
24.2	128
24.3	122
24.4	124
24.5	118
24.6	116
24.7	117
24.8	116
24.9	103
25	112
25.1	107
25.2	104
25.3	100
25.4	91
25.5	99
25.6	98
25.7	100
25.8	86
25.9	88
26	88