File: 20131015-Master_Thesis_Presentation/img/ig2-8-xrd.txt
3	41
3.15	46
3.3	48
3.45	46
3.6	67
3.75	67
3.9	71
4.05	96
4.2	109
4.35	125
4.5	154
4.65	181
4.8	245
4.95	310
5.1	396
5.25	512
5.4	592
5.55	684
5.7	591
5.85	443
6	319
6.15	230
6.3	188
6.45	155
6.6	122
6.75	113
6.9	97
7.05	91
7.2	80
7.35	81
7.5	72
7.65	72
7.8	73
7.95	61
8.1	58
8.25	57
8.4	58
8.55	61
8.7	55
8.85	51
9	49
9.15	46
9.3	44
9.45	47
9.6	47
9.75	46
9.9	46
10.05	51
10.2	46
10.35	50
10.5	54
10.65	59
10.8	54
10.95	45
11.1	46
11.25	42
11.4	40
11.55	40
11.7	39
11.85	43
12	39
12.15	38
12.3	34
12.45	42
12.6	36
12.75	37
12.9	41
13.05	42
13.2	49
13.35	49
13.5	45
13.65	50
13.8	49
13.95	50
14.1	58
14.25	56
14.4	52
14.55	60
14.7	73
14.85	67
15	71
15.15	80
15.3	88
15.45	93
15.6	101
15.75	101
15.9	119
16.05	129
16.2	123
16.35	126
16.5	119
16.65	125
16.8	124
16.95	132
17.1	135
17.25	126
17.4	140
17.55	129
17.7	131
17.85	126
18	126
18.15	131
18.3	125
18.45	128
18.6	129
18.75	124
18.9	120
19.05	119
19.2	122
19.35	121
19.5	125
19.65	124
19.8	125
19.95	118
20.1	112
20.25	118
20.4	118
20.55	128
20.7	123
20.85	122
21	122
21.15	136
21.3	122
21.45	130
21.6	128
21.75	134
21.9	133
22.05	134
22.2	132
22.35	140
22.5	147
22.65	138
22.8	143
22.95	153
23.1	161
23.25	158
23.4	168
23.55	162
23.7	161
23.85	160
24	168
24.15	155
24.3	156
24.45	152
24.6	149
24.75	141
24.9	136
25.05	137
25.2	143
25.35	128
25.5	127
25.65	125
25.8	119
25.95	119
26.1	114
26.25	108
26.4	112
26.55	107
26.7	106
26.85	105
27	100
27.15	98
27.3	105
27.45	109
27.6	105
27.75	103
27.9	101
28.05	92
28.2	92
28.35	94
28.5	96
28.65	90
28.8	90
28.95	86
29.1	92
29.25	87
29.4	82
29.55	79
29.7	84
29.85	78
30	83
30.15	84
30.3	87
30.45	81
30.6	81
30.75	83
30.9	71
31.05	77
31.2	83
31.35	83
31.5	76
31.65	81
31.8	79
31.95	76
32.1	72
32.25	77
32.4	73
32.55	80
32.7	85
32.85	76
33	78